#Magnitudes for spectra_ddc10_cmfgen calculated by wsynphot
#with vega calibration file: https://archive.stsci.edu/hlsps/reference-atlases/cdbs/calspec/alpha_lyr_stis_003.fits 
#and with scipy 1D interpolation kind='cubic'.
#U,B,V,R,I are Generic Bessell filters and J, H, K are 2MASS filters, taken from http://svo2.cab.inta-csic.es/theory/fps/index.php 
#
#NTIMES: 59
#NBANDS: 8
#time[d] U B V R I J H K
9.760000e-01 -6.209807 -8.581820 -10.600195 -11.830135 -11.681006 -12.693192 -12.751794 -12.870219
1.074000e+00 -6.392984 -9.108486 -11.132335 -12.291523 -12.134281 -12.992076 -13.064330 -13.158464
1.181000e+00 -6.878666 -9.698621 -11.651885 -12.728104 -12.572047 -13.277948 -13.361450 -13.434925
1.300000e+00 -7.547322 -10.339529 -12.184060 -13.128842 -12.969345 -13.588572 -13.683250 -13.751488
1.430000e+00 -8.455183 -11.002389 -12.694818 -13.496153 -13.322064 -13.885406 -13.980611 -14.043502
1.573000e+00 -9.420224 -11.631429 -13.175386 -13.838659 -13.650165 -14.168346 -14.257482 -14.318319
1.730000e+00 -10.312358 -12.199741 -13.631656 -14.151071 -13.963723 -14.458418 -14.542080 -14.603925
1.900000e+00 -11.072946 -12.705209 -14.041320 -14.433738 -14.258360 -14.719814 -14.795468 -14.859347
2.090000e+00 -11.745986 -13.174494 -14.423405 -14.710302 -14.548336 -14.990147 -15.055630 -15.124828
2.300000e+00 -12.372542 -13.617142 -14.774466 -14.987170 -14.826039 -15.260178 -15.316838 -15.392170
2.530000e+00 -12.980758 -14.045960 -15.099381 -15.264703 -15.095451 -15.526872 -15.573726 -15.656552
2.783000e+00 -13.569150 -14.480350 -15.421509 -15.557949 -15.372814 -15.808910 -15.844260 -15.933348
3.061000e+00 -14.137569 -14.921950 -15.727246 -15.845307 -15.645487 -16.068939 -16.095036 -16.187310
3.367000e+00 -14.676555 -15.376880 -16.032791 -16.146287 -15.922624 -16.343845 -16.357395 -16.445577
3.704000e+00 -15.170829 -15.825444 -16.328191 -16.447067 -16.196663 -16.617134 -16.615618 -16.691896
4.074000e+00 -15.633099 -16.250061 -16.613255 -16.749472 -16.469411 -16.902379 -16.887082 -16.944332
4.481000e+00 -16.095274 -16.647203 -16.883652 -17.031464 -16.731688 -17.156017 -17.121773 -17.158195
4.929000e+00 -16.571832 -17.020462 -17.145534 -17.303064 -17.004563 -17.393401 -17.336559 -17.351019
5.422000e+00 -17.057126 -17.366877 -17.395338 -17.566263 -17.308707 -17.610125 -17.528716 -17.522931
5.964000e+00 -17.529407 -17.681080 -17.633072 -17.817928 -17.619566 -17.802834 -17.697997 -17.674693
6.560000e+00 -17.959161 -17.966988 -17.859330 -18.052148 -17.892829 -17.975641 -17.842588 -17.807150
7.216000e+00 -18.333455 -18.223315 -18.073918 -18.263861 -18.117896 -18.127432 -17.960841 -17.918712
7.938000e+00 -18.664879 -18.447959 -18.275058 -18.452357 -18.300765 -18.257215 -18.050753 -18.006746
8.732000e+00 -18.958024 -18.646713 -18.465105 -18.619382 -18.449234 -18.363254 -18.106880 -18.065619
9.600000e+00 -19.200585 -18.819725 -18.638752 -18.762958 -18.563744 -18.439288 -18.128781 -18.091584
1.056000e+01 -19.392202 -18.973468 -18.799578 -18.886996 -18.645892 -18.482024 -18.114695 -18.081291
1.162000e+01 -19.520844 -19.101663 -18.952693 -19.016160 -18.731989 -18.537279 -18.109603 -18.074687
1.278000e+01 -19.612807 -19.215376 -19.086503 -19.114140 -18.764823 -18.535911 -18.057001 -18.024038
1.406000e+01 -19.744797 -19.292653 -19.175862 -19.196192 -18.785109 -18.505696 -17.977422 -17.953759
1.547000e+01 -19.757847 -19.325228 -19.253453 -19.257937 -18.780983 -18.453989 -17.906741 -17.893866
1.702000e+01 -19.732601 -19.351727 -19.373950 -19.313905 -18.898953 -18.396413 -17.915932 -18.090458
1.872000e+01 -19.623005 -19.345109 -19.414934 -19.341158 -18.888429 -18.293416 -17.870179 -18.071073
2.059000e+01 -19.503200 -19.310005 -19.427931 -19.350373 -18.874402 -18.191722 -17.884013 -18.080966
2.265000e+01 -19.361038 -19.238054 -19.406788 -19.327461 -18.848117 -18.072896 -17.944748 -18.119392
2.491000e+01 -19.186993 -19.123894 -19.344063 -19.250133 -18.775121 -17.834301 -18.001748 -18.153408
2.740000e+01 -18.977695 -18.961683 -19.232883 -19.111890 -18.628016 -17.314840 -17.992706 -18.147068
3.014000e+01 -18.714975 -18.742092 -19.073592 -18.932096 -18.464721 -16.892561 -17.976397 -18.121893
3.315000e+01 -18.290061 -18.374426 -18.902962 -18.797068 -18.554107 -17.023411 -18.366028 -18.398611
3.646000e+01 -17.939478 -18.058992 -18.704107 -18.694049 -18.684225 -17.279671 -18.581995 -18.524730
4.011000e+01 -17.585633 -17.703220 -18.489359 -18.615738 -18.810477 -17.716077 -18.787495 -18.694953
4.412000e+01 -17.242489 -17.332756 -18.200884 -18.423839 -18.740016 -17.794808 -18.702593 -18.585949
4.853000e+01 -16.953313 -17.030007 -17.901984 -18.150747 -18.460931 -17.428478 -18.382549 -18.231553
5.338000e+01 -16.719233 -16.799461 -17.660912 -17.913354 -18.166613 -17.001685 -18.062407 -17.890027
5.872000e+01 -16.541767 -16.633502 -17.458712 -17.703730 -17.875109 -16.578670 -17.762746 -17.584768
6.459000e+01 -16.378559 -16.496204 -17.271642 -17.501810 -17.586437 -16.154245 -17.476154 -17.301955
7.105000e+01 -16.218923 -16.370719 -17.080059 -17.291414 -17.298006 -15.718125 -17.189446 -17.026541
7.820000e+01 -16.046291 -16.243476 -16.877432 -17.064952 -17.005828 -15.262665 -16.889630 -16.749456
8.600000e+01 -15.857523 -16.111344 -16.660563 -16.819468 -16.713437 -14.790822 -16.571655 -16.469210
9.460000e+01 -15.641890 -15.966977 -16.427078 -16.548841 -16.419297 -14.300950 -16.219030 -16.178214
1.041000e+02 -15.408815 -15.814282 -16.177899 -16.258361 -16.129139 -13.828970 -15.829700 -15.886798
1.145000e+02 -15.139486 -15.627802 -15.905434 -15.934344 -15.842200 -13.383990 -15.387340 -15.577675
1.260000e+02 -14.834983 -15.413866 -15.615314 -15.583451 -15.555580 -13.027640 -14.906331 -15.271440
1.386000e+02 -14.504444 -15.174607 -15.370766 -15.190720 -15.274591 -12.819254 -14.419245 -14.934338
1.525000e+02 -14.136476 -14.901670 -15.076850 -14.792733 -14.989786 -12.675608 -13.985072 -14.644630
1.678000e+02 -13.729004 -14.594929 -14.768491 -14.382724 -14.706900 -12.590086 -13.621397 -14.366141
1.846000e+02 -13.283709 -14.264049 -14.449290 -13.984863 -14.434541 -12.483742 -13.325255 -14.099284
2.031000e+02 -12.811509 -13.909672 -14.113738 -13.598451 -14.163435 -12.323024 -13.078670 -13.833222
2.234000e+02 -12.320005 -13.536290 -13.759187 -13.219303 -13.885773 -12.112707 -12.862378 -13.559638
2.457000e+02 -11.814621 -13.146140 -13.385077 -12.835736 -13.591693 -11.884990 -12.663373 -13.269592
